<E>  //Electronic energy (a.u.)
    -4409.2698190000
<frequency>  //Wavenumbers (cm**-1).
  -29.3839
   19.5058
   26.2094
   27.6127
   32.2830
   34.4400
   37.9912
   44.2108
   46.0872
   56.5187
   62.0565
   69.2318
   74.5463
   77.1429
   82.7073
   89.8230
   92.6184
  101.7063
  112.9765
  114.3099
  127.3055
  137.7911
  146.0412
  148.0515
  152.9814
  159.1215
  165.2475
  168.5214
  173.4376
  179.0745
  192.1592
  202.7213
  215.0115
  227.7481
  238.6543
  243.0615
  254.6211
  260.1655
  265.5076
  266.1291
  278.8741
  294.2123
  315.8493
  325.5055
  335.7628
  355.9217
  359.4118
  363.3558
  367.5177
  376.0013
  423.0162
  445.0919
  446.5846
  459.3692
  469.1818
  475.5818
  479.2165
  488.3159
  513.6145
  523.7776
  529.6390
  538.4556
  546.6809
  556.7396
  559.0067
  570.4292
  573.0089
  603.7337
  642.5284
  672.1743
  673.8096
  688.7437
  701.4377
  733.4738
  736.9011
  739.6848
  745.9034
  755.4269
  761.3400
  783.5302
  786.5186
  805.0554
  807.8229
  814.9102
  823.7909
  856.0709
  862.0719
  880.4274
  880.6198
  884.1406
  888.5985
  889.0186
  897.3804
  907.1518
  919.1577
  921.1328
  927.0264
  952.3838
  966.6091
  973.9701
  975.1527
  993.4034
  994.5151
 1001.1020
 1011.1848
 1022.8233
 1038.5502
 1039.8666
 1044.1695
 1047.6156
 1052.4811
 1053.7337
 1055.5674
 1057.8103
 1059.7331
 1065.3529
 1083.5068
 1086.1018
 1091.4297
 1097.0529
 1107.9372
 1114.0208
 1118.3612
 1133.7535
 1140.1177
 1142.6116
 1147.1634
 1162.5678
 1169.8284
 1170.2951
 1200.4558
 1201.8686
 1204.2250
 1204.8432
 1222.2235
 1244.4405
 1246.5045
 1249.9084
 1253.1968
 1253.7436
 1255.9337
 1261.6603
 1263.7458
 1270.2308
 1273.0240
 1286.0277
 1299.6305
 1305.1639
 1310.0207
 1322.6715
 1328.0464
 1329.6984
 1330.1661
 1330.5205
 1337.4468
 1342.0301
 1345.6617
 1346.4538
 1359.3373
 1364.9207
 1366.5658
 1374.3046
 1379.2390
 1386.9946
 1393.8281
 1394.6043
 1402.3745
 1404.9264
 1416.0692
 1418.2977
 1437.1821
 1439.3978
 1440.9032
 1451.2189
 1459.4300
 1462.4610
 1466.6459
 1473.8575
 1474.1643
 1475.2708
 1479.1879
 1485.6009
 1489.9089
 1491.5734
 1513.2060
 1515.1915
 1535.3970
 1541.7452
 1549.5047
 1678.9890
 1681.6453
 1703.1454
 1706.2634
 1729.1011
 1762.2029
 3002.9921
 3014.7048
 3020.3494
 3024.4261
 3027.0821
 3036.8967
 3043.7264
 3057.4795
 3058.1571
 3071.8382
 3073.8443
 3074.3237
 3074.6600
 3082.2755
 3095.6433
 3102.5734
 3110.9244
 3115.7997
 3122.3894
 3127.9953
 3130.6348
 3131.6023
 3134.0300
 3134.6557
 3147.2871
 3147.3335
 3155.7566
 3171.5263
 3191.2179
 3196.1654
 3198.3303
 3205.9159
 3208.8491
 3215.2351
 3219.8328
 3225.3797
<system>  //Name, mass (amu), X, Y, Z (Angstrom)
C   12.000000   -3.709607   -3.329907   -1.023933   
C   12.000000   -4.004130   -2.400510   -2.023924   
C   12.000000   -3.214291   -1.256965   -2.190026   
C   12.000000   -2.130130   -1.020947   -1.343881   
C   12.000000   -1.859052   -1.936611   -0.329347   
C   12.000000   -2.625948   -3.093893   -0.178058   
C   12.000000   -0.780972   -1.870280   0.728313    
C   12.000000   -0.839444   -3.255139   1.412319    
C   12.000000   -2.135639   -3.936326   0.974916    
O   15.994910   0.338590    -3.916687   0.867027    
N   14.003070   0.574262    -1.829811   0.172315    
C   12.000000   1.078410    -3.006386   0.268901    
C   12.000000   2.408075    -3.478286   -0.209740   
C   12.000000   4.841644    0.360634    -0.517283   
C   12.000000   4.264228    1.502499    0.031267    
C   12.000000   4.944465    2.171543    1.049610    
C   12.000000   6.184706    1.698825    1.494270    
C   12.000000   6.756664    0.551527    0.937719    
C   12.000000   6.071942    -0.124621   -0.072094   
C   12.000000   6.475346    -1.377927   -0.813587   
C   12.000000   5.252058    -1.728326   -1.671294   
C   12.000000   4.240903    -0.557298   -1.550891   
O   15.994910   4.513050    -2.852620   -1.115815   
N   14.003070   3.034558    -1.213823   -1.033766   
C   12.000000   3.304453    -2.446661   -0.799179   
H   1.007830    -4.321238   -4.229237   -0.906555   
H   1.007830    -4.856170   -2.571910   -2.688528   
H   1.007830    -3.448605   -0.543312   -2.985236   
H   1.007830    -1.508195   -0.131039   -1.468885   
H   1.007830    -0.913959   -1.036258   1.431351    
H   1.007830    -0.699016   -3.227895   2.500667    
H   1.007830    -2.857756   -3.929074   1.808665    
H   1.007830    -1.962846   -4.989676   0.701342    
H   1.007830    3.287452    1.856721    -0.317128   
H   1.007830    4.502828    3.062518    1.504840    
H   1.007830    6.710316    2.230621    2.293016    
H   1.007830    7.722699    0.185344    1.297591    
H   1.007830    6.734523    -2.211000   -0.140443   
H   1.007830    7.350675    -1.196207   -1.459149   
H   1.007830    5.503547    -2.003505   -2.702484   
H   1.007830    4.014158    -0.060390   -2.505452   
Cu  62.929600   1.504299    -0.186114   -0.406848   
S   31.972070   0.022966    1.960607    1.322301    
O   15.994910   0.907485    3.121392    1.260877    
O   15.994910   0.131084    1.101555    0.055943    
Cl  34.968850   1.335863    0.371008    2.682446    
C   12.000000   -2.216591   2.924936    -0.963675   
C   12.000000   -2.340619   2.794750    0.529415    
C   12.000000   -2.987772   1.517921    0.993535    
H   1.007830    -2.381468   0.663199    0.646380    
C   12.000000   -4.418794   1.285418    0.480936    
H   1.007830    -2.987507   1.490782    2.097327    
H   1.007830    -5.075715   2.116054    0.799207    
C   12.000000   -4.980839   -0.049605   0.966412    
H   1.007830    -4.417264   1.284314    -0.623881   
H   1.007830    -5.085313   -0.029063   2.068148    
H   1.007830    -4.249726   -0.848021   0.736623    
C   12.000000   -6.319885   -0.411666   0.328610    
H   1.007830    -6.199468   -0.429301   -0.772224   
H   1.007830    -7.062426   0.380587    0.546343    
C   12.000000   -6.866666   -1.761013   0.792241    
H   1.007830    -6.102566   -2.540391   0.609857    
C   12.000000   -8.166596   -2.153882   0.097299    
H   1.007830    -7.024802   -1.733627   1.886934    
H   1.007830    -8.023641   -2.232726   -0.996098   
H   1.007830    -8.958575   -1.404058   0.277453    
H   1.007830    -8.538861   -3.128945   0.458422    
H   1.007830    -1.713712   2.035311    -1.377406   
H   1.007830    -3.228811   2.945381    -1.412649   
C   12.000000   -2.452284   4.012070    1.389607    
C   12.000000   -1.509568   4.132078    -1.528045   
F   18.998400   -1.432468   4.037167    -2.865234   
F   18.998400   -2.149903   5.281798    -1.264554   
F   18.998400   -0.258402   4.270478    -1.078006   
H   1.007830    -1.637040   4.734121    1.214872    
H   1.007830    -2.453113   3.737544    2.457567    
H   1.007830    -3.405117   4.541653    1.180011    
H   1.007830    2.933940    -3.958416   0.633087    
H   1.007830    2.250105    -4.274038   -0.959818   
<elevel>  //Energy (eV) and degeneracy of electronic energy levels
0.000000    1   
