<E>  //Electronic energy (a.u.)
     -773.6752671847
<frequency>  //Wavenumbers (cm**-1).
   30.1800
   38.9900
   70.3500
  119.5300
  136.5500
  146.0200
  160.6000
  166.0300
  178.5400
  187.1100
  210.1700
  218.1100
  227.3600
  265.5400
  292.2000
  339.1300
  370.9500
  417.9000
  453.3400
  541.8800
  547.8600
  606.0300
  626.4000
  662.6100
  687.4100
  696.9100
  703.9600
  711.6000
  733.8400
  749.0500
  766.7700
  768.1800
  772.9800
  855.4200
  855.8700
  857.7300
  869.7200
  874.9000
  963.8100
  997.9200
 1001.6200
 1062.3100
 1065.6800
 1138.7500
 1168.8500
 1185.3100
 1204.0800
 1233.9900
 1273.3900
 1280.5900
 1282.0300
 1319.0900
 1323.6000
 1411.5900
 1437.7300
 1438.9400
 1440.9000
 1442.6500
 1445.3100
 1446.4300
 1452.4200
 1471.8000
 1478.3300
 1500.5200
 1514.2000
 1591.4900
 1636.8800
 3053.6100
 3054.9200
 3055.5500
 3056.7100
 3104.5100
 3113.8100
 3137.7300
 3139.0800
 3140.4300
 3142.5600
 3143.8300
 3147.3300
 3150.8400
 3181.9900
 3186.5600
 3201.7800
 3217.3700
<system>  //Name, mass (amu), X, Y, Z (Angstrom)
C   12.011000   0.867757    0.660266    0.474154    
C   12.011000   2.246309    0.516834    0.491675    
C   12.011000   0.069175    -0.451664   0.069125    
C   12.011000   2.881618    -0.667758   0.130932    
C   12.011000   2.106921    -1.759371   -0.258696   
C   12.011000   0.735423    -1.654160   -0.287570   
H   1.008000    2.580170    -2.693387   -0.539630   
H   1.008000    0.134919    -2.505886   -0.589029   
H   1.008000    2.847459    1.365254    0.803047    
H   1.008000    3.962025    -0.738389   0.159230    
C   12.011000   0.255959    1.968130    0.890118    
C   12.011000   -1.342968   -0.445660   0.004222    
N   14.007000   -2.201622   0.556122    0.302182    
H   1.008000    -1.841023   -1.378540   -0.268974   
Si  28.086000   -3.077580   1.600288    -0.836888   
H   1.008000    -0.498918   1.832295    1.667928    
H   1.008000    -0.229895   2.471988    0.050106    
H   1.008000    1.021318    2.642664    1.274593    
C   12.011000   -4.636567   0.648652    -1.225250   
C   12.011000   -2.074529   1.896480    -2.381508   
C   12.011000   -3.440577   3.183991    0.070470    
H   1.008000    -4.407352   -0.291893   -1.730118   
H   1.008000    -5.268113   1.246453    -1.887688   
H   1.008000    -5.203539   0.428422    -0.319189   
H   1.008000    -1.831564   0.951172    -2.871849   
H   1.008000    -1.140167   2.418386    -2.165074   
H   1.008000    -2.646602   2.507926    -3.083984   
H   1.008000    -3.989185   2.985343    0.993300    
H   1.008000    -4.049718   3.841792    -0.554402   
H   1.008000    -2.520854   3.715012    0.324219    
<elevel>  //Energy (eV) and degeneracy of electronic energy levels
0.000000    3   
